Wavelength data table
Sample name	250.0nm	300.0nm	350.0nm	400.0nm	450.0nm	500.0nm	550.0nm	600.0nm	650.0nm	700.0nm	750.0nm	800.0nm	
'UPPI-INU(EM)		138.8	478.2	98.72								

Sample:	'UPPI-INU(EM)
File name:	UPPI-INU-3.FDS
Run date:	'14:34:55, 01/18/2024
Operator:	Administrator
Comment:	'

Instrument
Model:	F-7000 FL Spectrophotometer
Serial number:	2822-002
ROM Version:	5J14000 12

Instrument parameters
Measurement type:	Wavelength scan
Scan mode:	Emission
Data mode:	Fluorescence
EX WL:	285.0 nm
EM  Start WL:	300.0 nm
EM  End WL:	400.0 nm
Scan speed:	1200 nm/min
Delay:	0.1 s
EX Slit:	5.0 nm
EM Slit:	5.0 nm
PMT Voltage:	400 V
Response:	Auto 
Corrected spectra:	Off
Shutter control:	On

Peak integration
Integration method:	Rectangular
Sensitivity:	2
Threshold:	1.000

Peaks
No.	Start(nm)	Apex(nm)	End(nm)	Height(Data)	Valley(nm)	Valley(Data)
1	300.0	340.4	400.0	515.2	400.0	98.72

Data points
nm	Data
300.0	138.8
300.2	139.3
300.4	140.9
300.6	143.2
300.8	146.0
301.0	147.9
301.2	149.9
301.4	151.7
301.6	153.3
301.8	155.6
302.0	158.0
302.2	160.3
302.4	163.1
302.6	165.2
302.8	167.9
303.0	170.0
303.2	172.3
303.4	173.8
303.6	175.5
303.8	177.3
304.0	180.3
304.2	181.6
304.4	184.4
304.6	186.3
304.8	188.1
305.0	190.3
305.2	192.9
305.4	195.0
305.6	197.9
305.8	200.0
306.0	202.9
306.2	204.6
306.4	207.2
306.6	209.4
306.8	211.4
307.0	213.9
307.2	216.8
307.4	218.7
307.6	221.2
307.8	223.8
308.0	225.9
308.2	228.4
308.4	231.6
308.6	233.9
308.8	236.9
309.0	239.0
309.2	241.5
309.4	243.9
309.6	245.7
309.8	247.5
310.0	250.2
310.2	252.7
310.4	254.9
310.6	257.1
310.8	259.4
311.0	261.5
311.2	263.9
311.4	266.2
311.6	268.2
311.8	270.6
312.0	273.5
312.2	276.4
312.4	278.9
312.6	281.5
312.8	284.2
313.0	287.3
313.2	290.3
313.4	293.2
313.6	296.5
313.8	298.9
314.0	302.4
314.2	306.3
314.4	308.5
314.6	310.5
314.8	313.4
315.0	315.9
315.2	318.7
315.4	321.7
315.6	323.5
315.8	324.7
316.0	327.2
316.2	328.9
316.4	331.3
316.6	333.3
316.8	335.5
317.0	337.4
317.2	339.3
317.4	340.7
317.6	343.0
317.8	344.9
318.0	347.5
318.2	349.8
318.4	352.8
318.6	355.1
318.8	356.8
319.0	359.3
319.2	362.1
319.4	364.6
319.6	367.0
319.8	368.9
320.0	371.7
320.2	374.5
320.4	376.6
320.6	378.2
320.8	381.3
321.0	383.6
321.2	386.5
321.4	388.4
321.6	391.7
321.8	393.9
322.0	396.1
322.2	397.9
322.4	400.2
322.6	401.7
322.8	403.4
323.0	405.4
323.2	408.1
323.4	409.2
323.6	410.9
323.8	411.7
324.0	413.1
324.2	414.8
324.4	416.8
324.6	418.8
324.8	420.8
325.0	424.0
325.2	425.8
325.4	427.8
325.6	429.4
325.8	431.0
326.0	433.0
326.2	435.7
326.4	438.0
326.6	440.0
326.8	441.8
327.0	443.2
327.2	445.2
327.4	446.6
327.6	449.9
327.8	452.3
328.0	454.5
328.2	456.1
328.4	457.7
328.6	459.2
328.8	461.0
329.0	462.5
329.2	464.5
329.4	466.0
329.6	467.5
329.8	469.3
330.0	471.0
330.2	472.9
330.4	473.7
330.6	474.0
330.8	476.3
331.0	477.9
331.2	479.6
331.4	480.8
331.6	482.9
331.8	483.9
332.0	485.5
332.2	486.4
332.4	487.6
332.6	488.5
332.8	489.2
333.0	490.7
333.2	492.2
333.4	492.8
333.6	494.6
333.8	496.3
334.0	497.8
334.2	499.3
334.4	500.8
334.6	501.4
334.8	501.8
335.0	503.1
335.2	503.3
335.4	504.6
335.6	504.9
335.8	505.6
336.0	506.3
336.2	506.5
336.4	507.4
336.6	508.4
336.8	509.9
337.0	510.3
337.2	511.3
337.4	511.1
337.6	511.0
337.8	512.2
338.0	511.8
338.2	511.4
338.4	510.9
338.6	510.4
338.8	511.3
339.0	513.0
339.2	513.3
339.4	513.5
339.6	512.8
339.8	513.6
340.0	514.2
340.2	514.6
340.4	515.2
340.6	514.9
340.8	514.3
341.0	514.1
341.2	514.2
341.4	513.7
341.6	512.5
341.8	511.7
342.0	511.6
342.2	511.2
342.4	511.6
342.6	510.5
342.8	510.1
343.0	509.8
343.2	508.8
343.4	509.3
343.6	507.9
343.8	508.1
344.0	507.8
344.2	506.9
344.4	506.5
344.6	506.2
344.8	504.3
345.0	504.3
345.2	502.4
345.4	502.4
345.6	500.4
345.8	500.1
346.0	498.8
346.2	498.0
346.4	498.7
346.6	497.8
346.8	496.9
347.0	494.9
347.2	493.9
347.4	493.2
347.6	492.3
347.8	491.5
348.0	490.6
348.2	489.3
348.4	488.2
348.6	487.9
348.8	486.0
349.0	484.9
349.2	483.4
349.4	482.9
349.6	480.8
349.8	479.9
350.0	478.2
350.2	478.0
350.4	475.7
350.6	474.0
350.8	471.9
351.0	471.9
351.2	469.6
351.4	468.4
351.6	467.4
351.8	465.8
352.0	463.1
352.2	461.2
352.4	459.8
352.6	458.4
352.8	456.8
353.0	455.9
353.2	454.0
353.4	452.3
353.6	450.5
353.8	449.2
354.0	446.6
354.2	444.4
354.4	442.6
354.6	441.6
354.8	440.4
355.0	439.0
355.2	436.7
355.4	435.4
355.6	432.3
355.8	430.6
356.0	429.2
356.2	427.4
356.4	424.6
356.6	423.9
356.8	421.6
357.0	420.0
357.2	416.7
357.4	415.3
357.6	413.6
357.8	412.2
358.0	409.9
358.2	409.0
358.4	405.9
358.6	404.1
358.8	401.8
359.0	400.4
359.2	397.7
359.4	396.3
359.6	394.7
359.8	392.9
360.0	390.8
360.2	388.6
360.4	386.5
360.6	385.3
360.8	383.5
361.0	382.4
361.2	380.5
361.4	378.4
361.6	376.6
361.8	375.1
362.0	372.8
362.2	371.6
362.4	368.8
362.6	367.0
362.8	364.9
363.0	362.3
363.2	360.5
363.4	357.9
363.6	355.1
363.8	353.0
364.0	351.2
364.2	349.1
364.4	347.3
364.6	345.3
364.8	343.7
365.0	342.1
365.2	339.6
365.4	337.7
365.6	335.6
365.8	333.7
366.0	331.6
366.2	329.1
366.4	327.5
366.6	325.3
366.8	323.7
367.0	322.6
367.2	320.8
367.4	318.7
367.6	316.4
367.8	314.3
368.0	312.3
368.2	310.6
368.4	308.6
368.6	307.0
368.8	305.5
369.0	304.2
369.2	302.0
369.4	299.7
369.6	297.8
369.8	295.4
370.0	293.4
370.2	292.2
370.4	290.5
370.6	288.9
370.8	286.5
371.0	284.2
371.2	282.6
371.4	280.9
371.6	279.5
371.8	277.8
372.0	275.7
372.2	274.0
372.4	272.3
372.6	270.3
372.8	268.1
373.0	266.9
373.2	265.2
373.4	263.5
373.6	261.6
373.8	259.7
374.0	258.7
374.2	256.8
374.4	254.4
374.6	252.1
374.8	250.4
375.0	248.7
375.2	247.5
375.4	246.0
375.6	244.7
375.8	242.7
376.0	241.3
376.2	239.1
376.4	237.5
376.6	236.2
376.8	234.5
377.0	232.6
377.2	230.9
377.4	229.4
377.6	227.6
377.8	226.1
378.0	224.7
378.2	222.6
378.4	221.1
378.6	219.7
378.8	218.1
379.0	216.4
379.2	214.9
379.4	213.1
379.6	211.5
379.8	209.6
380.0	208.5
380.2	206.5
380.4	205.4
380.6	203.6
380.8	202.7
381.0	201.8
381.2	201.0
381.4	199.4
381.6	197.9
381.8	196.4
382.0	194.8
382.2	193.5
382.4	191.7
382.6	190.3
382.8	189.0
383.0	187.5
383.2	186.3
383.4	184.4
383.6	183.4
383.8	182.0
384.0	180.6
384.2	179.5
384.4	178.0
384.6	176.4
384.8	174.8
385.0	173.2
385.2	171.9
385.4	171.0
385.6	170.1
385.8	168.4
386.0	167.9
386.2	166.8
386.4	165.5
386.6	164.2
386.8	163.0
387.0	161.9
387.2	160.7
387.4	159.1
387.6	158.2
387.8	156.7
388.0	155.6
388.2	154.2
388.4	153.0
388.6	151.9
388.8	151.2
389.0	149.8
389.2	148.8
389.4	147.9
389.6	146.5
389.8	145.2
390.0	143.9
390.2	143.0
390.4	141.5
390.6	140.2
390.8	139.2
391.0	138.3
391.2	137.5
391.4	136.0
391.6	135.5
391.8	134.6
392.0	133.8
392.2	132.9
392.4	131.7
392.6	130.6
392.8	129.4
393.0	128.6
393.2	127.8
393.4	126.5
393.6	125.7
393.8	124.9
394.0	123.9
394.2	122.4
394.4	121.9
394.6	121.1
394.8	119.8
395.0	118.8
395.2	117.9
395.4	117.0
395.6	116.3
395.8	115.5
396.0	115.0
396.2	114.1
396.4	113.1
396.6	112.1
396.8	111.4
397.0	110.8
397.2	109.4
397.4	108.9
397.6	108.4
397.8	107.5
398.0	106.5
398.2	105.9
398.4	104.7
398.6	104.1
398.8	103.2
399.0	102.3
399.2	101.8
399.4	100.8
399.6	99.83
399.8	99.03
400.0	98.72

