Wavelength data table
Sample name	250.0nm	300.0nm	350.0nm	400.0nm	450.0nm	500.0nm	550.0nm	600.0nm	650.0nm	700.0nm	750.0nm	800.0nm	
'UPPI-INU(EM)		136.0	470.1	97.03								

Sample:	'UPPI-INU(EM)
File name:	UPPI-INU-1_20240118_143249.FDS
Run date:	'14:32:38, 01/18/2024
Operator:	Administrator
Comment:	'

Instrument
Model:	F-7000 FL Spectrophotometer
Serial number:	2822-002
ROM Version:	5J14000 12

Instrument parameters
Measurement type:	Wavelength scan
Scan mode:	Emission
Data mode:	Fluorescence
EX WL:	285.0 nm
EM  Start WL:	300.0 nm
EM  End WL:	400.0 nm
Scan speed:	1200 nm/min
Delay:	0.1 s
EX Slit:	5.0 nm
EM Slit:	5.0 nm
PMT Voltage:	400 V
Response:	Auto 
Corrected spectra:	Off
Shutter control:	On

Peak integration
Integration method:	Rectangular
Sensitivity:	2
Threshold:	1.000

Peaks
No.	Start(nm)	Apex(nm)	End(nm)	Height(Data)	Valley(nm)	Valley(Data)
1	300.0	339.0	400.0	506.0	400.0	97.03

Data points
nm	Data
300.0	136.0
300.2	136.5
300.4	137.5
300.6	139.2
300.8	141.1
301.0	142.8
301.2	144.9
301.4	146.7
301.6	148.9
301.8	150.6
302.0	153.1
302.2	155.0
302.4	157.4
302.6	159.8
302.8	162.1
303.0	164.2
303.2	167.0
303.4	168.8
303.6	171.2
303.8	173.7
304.0	176.2
304.2	178.6
304.4	180.8
304.6	182.5
304.8	184.6
305.0	186.5
305.2	189.1
305.4	191.1
305.6	193.6
305.8	195.2
306.0	197.2
306.2	199.1
306.4	201.6
306.6	203.8
306.8	205.5
307.0	207.6
307.2	210.4
307.4	212.6
307.6	214.4
307.8	216.5
308.0	218.7
308.2	220.8
308.4	224.0
308.6	225.8
308.8	228.1
309.0	229.9
309.2	232.8
309.4	234.6
309.6	237.6
309.8	239.8
310.0	242.2
310.2	244.9
310.4	248.0
310.6	250.4
310.8	253.0
311.0	255.1
311.2	257.7
311.4	260.3
311.6	263.2
311.8	265.1
312.0	267.1
312.2	269.4
312.4	271.9
312.6	275.0
312.8	277.5
313.0	279.9
313.2	282.5
313.4	285.7
313.6	288.0
313.8	290.0
314.0	293.0
314.2	295.4
314.4	298.8
314.6	300.8
314.8	302.7
315.0	305.6
315.2	307.8
315.4	310.0
315.6	312.5
315.8	313.9
316.0	316.7
316.2	319.8
316.4	321.9
316.6	323.7
316.8	326.0
317.0	328.4
317.2	330.9
317.4	332.9
317.6	336.5
317.8	338.1
318.0	339.8
318.2	342.6
318.4	345.1
318.6	347.8
318.8	350.4
319.0	353.8
319.2	356.1
319.4	358.2
319.6	359.3
319.8	361.5
320.0	363.2
320.2	365.4
320.4	367.3
320.6	369.9
320.8	372.3
321.0	373.6
321.2	375.4
321.4	377.6
321.6	379.5
321.8	381.4
322.0	383.3
322.2	385.1
322.4	386.8
322.6	390.0
322.8	392.1
323.0	394.4
323.2	396.6
323.4	399.7
323.6	400.9
323.8	403.2
324.0	405.1
324.2	407.3
324.4	409.3
324.6	411.1
324.8	413.7
325.0	415.1
325.2	417.1
325.4	419.8
325.6	422.4
325.8	424.5
326.0	426.3
326.2	427.5
326.4	428.8
326.6	431.1
326.8	431.9
327.0	434.2
327.2	435.0
327.4	437.5
327.6	439.2
327.8	441.0
328.0	443.2
328.2	445.5
328.4	447.3
328.6	448.2
328.8	450.0
329.0	451.2
329.2	453.1
329.4	453.8
329.6	455.0
329.8	456.8
330.0	458.2
330.2	460.0
330.4	461.1
330.6	462.6
330.8	464.3
331.0	466.1
331.2	468.0
331.4	469.4
331.6	469.9
331.8	471.9
332.0	472.8
332.2	474.9
332.4	476.4
332.6	478.9
332.8	480.2
333.0	481.6
333.2	483.1
333.4	484.5
333.6	485.4
333.8	486.2
334.0	487.3
334.2	489.2
334.4	490.1
334.6	490.9
334.8	492.8
335.0	492.8
335.2	493.2
335.4	493.2
335.6	493.1
335.8	494.6
336.0	496.1
336.2	496.7
336.4	496.7
336.6	498.2
336.8	498.6
337.0	499.1
337.2	499.1
337.4	500.0
337.6	499.7
337.8	501.7
338.0	501.8
338.2	502.7
338.4	503.3
338.6	504.2
338.8	505.0
339.0	506.0
339.2	505.6
339.4	505.3
339.6	505.2
339.8	505.6
340.0	504.8
340.2	504.6
340.4	504.6
340.6	504.8
340.8	504.7
341.0	504.4
341.2	504.2
341.4	504.4
341.6	504.1
341.8	504.3
342.0	503.0
342.2	503.0
342.4	502.1
342.6	501.0
342.8	499.6
343.0	499.4
343.2	499.3
343.4	500.1
343.6	498.2
343.8	498.6
344.0	498.1
344.2	497.4
344.4	497.5
344.6	497.3
344.8	496.0
345.0	495.6
345.2	495.2
345.4	494.4
345.6	492.6
345.8	493.0
346.0	491.1
346.2	489.7
346.4	488.2
346.6	487.7
346.8	487.1
347.0	486.3
347.2	485.4
347.4	484.5
347.6	482.9
347.8	482.9
348.0	482.0
348.2	481.2
348.4	480.6
348.6	479.6
348.8	478.7
349.0	477.1
349.2	474.8
349.4	474.0
349.6	472.9
349.8	472.1
350.0	470.1
350.2	468.4
350.4	467.3
350.6	465.5
350.8	464.4
351.0	462.6
351.2	461.6
351.4	461.1
351.6	460.0
351.8	457.8
352.0	455.8
352.2	454.6
352.4	453.3
352.6	451.4
352.8	450.0
353.0	448.3
353.2	446.3
353.4	444.5
353.6	441.7
353.8	440.2
354.0	438.0
354.2	436.7
354.4	435.4
354.6	433.6
354.8	431.1
355.0	430.1
355.2	428.5
355.4	427.4
355.6	424.7
355.8	423.4
356.0	421.7
356.2	420.3
356.4	418.6
356.6	416.7
356.8	415.4
357.0	413.1
357.2	411.9
357.4	409.3
357.6	407.9
357.8	406.0
358.0	403.8
358.2	401.8
358.4	400.6
358.6	398.2
358.8	396.5
359.0	394.4
359.2	392.6
359.4	391.1
359.6	389.1
359.8	387.1
360.0	385.5
360.2	383.8
360.4	381.8
360.6	379.1
360.8	377.1
361.0	375.3
361.2	374.0
361.4	371.7
361.6	369.3
361.8	367.4
362.0	365.6
362.2	363.9
362.4	362.6
362.6	360.1
362.8	358.5
363.0	355.9
363.2	353.4
363.4	351.2
363.6	349.5
363.8	347.7
364.0	346.2
364.2	343.7
364.4	342.6
364.6	340.6
364.8	338.6
365.0	336.6
365.2	334.7
365.4	332.1
365.6	330.3
365.8	328.9
366.0	327.5
366.2	325.0
366.4	322.8
366.6	320.7
366.8	319.5
367.0	317.8
367.2	315.7
367.4	312.9
367.6	311.1
367.8	309.3
368.0	307.9
368.2	306.1
368.4	304.3
368.6	301.7
368.8	301.0
369.0	298.7
369.2	297.0
369.4	294.7
369.6	292.7
369.8	290.5
370.0	289.2
370.2	287.3
370.4	285.6
370.6	283.5
370.8	282.2
371.0	280.3
371.2	278.8
371.4	276.8
371.6	275.3
371.8	273.3
372.0	271.6
372.2	269.2
372.4	268.0
372.6	266.4
372.8	264.9
373.0	263.1
373.2	261.4
373.4	259.8
373.6	258.2
373.8	256.7
374.0	254.8
374.2	252.8
374.4	250.7
374.6	249.0
374.8	246.8
375.0	245.2
375.2	243.8
375.4	242.4
375.6	240.3
375.8	238.6
376.0	237.0
376.2	235.3
376.4	234.1
376.6	232.0
376.8	230.7
377.0	228.3
377.2	227.0
377.4	225.5
377.6	224.1
377.8	222.5
378.0	220.9
378.2	218.9
378.4	217.6
378.6	215.7
378.8	214.6
379.0	213.0
379.2	211.5
379.4	209.9
379.6	208.5
379.8	206.7
380.0	205.1
380.2	203.4
380.4	201.7
380.6	200.6
380.8	200.0
381.0	198.6
381.2	197.5
381.4	195.7
381.6	194.4
381.8	193.0
382.0	191.1
382.2	190.3
382.4	188.6
382.6	186.4
382.8	185.1
383.0	183.9
383.2	182.8
383.4	181.1
383.6	180.1
383.8	178.7
384.0	177.4
384.2	176.3
384.4	174.7
384.6	173.5
384.8	172.3
385.0	171.0
385.2	169.6
385.4	168.3
385.6	167.2
385.8	166.5
386.0	165.3
386.2	164.2
386.4	162.7
386.6	161.5
386.8	160.3
387.0	158.9
387.2	157.9
387.4	156.5
387.6	155.4
387.8	154.3
388.0	152.9
388.2	151.7
388.4	150.6
388.6	149.4
388.8	148.4
389.0	147.0
389.2	146.0
389.4	145.1
389.6	144.3
389.8	143.3
390.0	142.2
390.2	141.0
390.4	139.7
390.6	138.9
390.8	137.6
391.0	136.7
391.2	135.6
391.4	134.8
391.6	133.7
391.8	133.1
392.0	132.0
392.2	131.6
392.4	130.6
392.6	129.3
392.8	128.4
393.0	127.4
393.2	126.2
393.4	125.0
393.6	124.0
393.8	123.3
394.0	122.6
394.2	121.8
394.4	120.4
394.6	119.3
394.8	118.4
395.0	117.5
395.2	117.0
395.4	116.5
395.6	115.0
395.8	114.1
396.0	113.5
396.2	112.5
396.4	112.2
396.6	111.3
396.8	110.1
397.0	109.3
397.2	108.3
397.4	107.3
397.6	106.1
397.8	105.4
398.0	104.5
398.2	103.9
398.4	103.3
398.6	102.5
398.8	102.0
399.0	101.0
399.2	99.91
399.4	99.18
399.6	98.42
399.8	97.73
400.0	97.03

