Wavelength data table
Sample name	250.0nm	300.0nm	350.0nm	400.0nm	450.0nm	500.0nm	550.0nm	600.0nm	650.0nm	700.0nm	750.0nm	800.0nm	
'PPI(EM)		37.61	238.4	91.33								

Sample:	'PPI(EM)
File name:	PPI-3.FDS
Run date:	'15:58:19, 01/18/2024
Operator:	Administrator
Comment:	'

Instrument
Model:	F-7000 FL Spectrophotometer
Serial number:	2822-002
ROM Version:	5J14000 12

Instrument parameters
Measurement type:	Wavelength scan
Scan mode:	Emission
Data mode:	Fluorescence
EX WL:	285.0 nm
EM  Start WL:	300.0 nm
EM  End WL:	400.0 nm
Scan speed:	1200 nm/min
Delay:	0.1 s
EX Slit:	5.0 nm
EM Slit:	5.0 nm
PMT Voltage:	400 V
Response:	Auto 
Corrected spectra:	Off
Shutter control:	On

Peak integration
Integration method:	Rectangular
Sensitivity:	2
Threshold:	1.000

Peaks
No.	Start(nm)	Apex(nm)	End(nm)	Height(Data)	Valley(nm)	Valley(Data)
1	300.0	356.6	400.0	246.1	400.0	91.33

Data points
nm	Data
300.0	37.61
300.2	37.58
300.4	37.82
300.6	37.99
300.8	38.20
301.0	38.57
301.2	38.69
301.4	39.10
301.6	39.56
301.8	40.04
302.0	40.38
302.2	40.87
302.4	41.12
302.6	41.22
302.8	41.71
303.0	41.90
303.2	42.33
303.4	42.63
303.6	43.23
303.8	43.61
304.0	43.90
304.2	44.39
304.4	44.70
304.6	44.88
304.8	45.15
305.0	45.07
305.2	45.57
305.4	46.09
305.6	46.56
305.8	46.80
306.0	46.84
306.2	47.20
306.4	47.50
306.6	47.83
306.8	47.94
307.0	48.26
307.2	48.49
307.4	48.62
307.6	49.05
307.8	49.44
308.0	49.50
308.2	49.77
308.4	50.00
308.6	50.10
308.8	50.33
309.0	50.50
309.2	50.93
309.4	51.01
309.6	51.58
309.8	51.85
310.0	52.02
310.2	52.21
310.4	52.45
310.6	52.70
310.8	53.45
311.0	53.70
311.2	54.11
311.4	54.57
311.6	54.74
311.8	54.99
312.0	55.56
312.2	56.02
312.4	56.43
312.6	56.97
312.8	57.38
313.0	57.83
313.2	57.92
313.4	58.40
313.6	58.74
313.8	59.11
314.0	59.68
314.2	59.88
314.4	60.51
314.6	61.05
314.8	61.50
315.0	61.51
315.2	62.29
315.4	62.64
315.6	63.04
315.8	63.38
316.0	63.75
316.2	64.48
316.4	64.85
316.6	65.28
316.8	65.89
317.0	66.46
317.2	67.41
317.4	67.95
317.6	69.05
317.8	69.36
318.0	70.06
318.2	70.62
318.4	71.30
318.6	71.77
318.8	72.43
319.0	73.17
319.2	74.18
319.4	74.79
319.6	75.33
319.8	75.77
320.0	76.47
320.2	77.09
320.4	77.90
320.6	78.65
320.8	79.02
321.0	79.68
321.2	80.39
321.4	81.64
321.6	82.68
321.8	83.29
322.0	84.06
322.2	84.90
322.4	85.53
322.6	86.00
322.8	86.72
323.0	87.35
323.2	88.55
323.4	89.52
323.6	90.47
323.8	91.23
324.0	92.15
324.2	93.21
324.4	94.13
324.6	94.99
324.8	95.86
325.0	96.98
325.2	97.79
325.4	98.36
325.6	99.38
325.8	100.8
326.0	102.3
326.2	103.1
326.4	104.4
326.6	105.5
326.8	106.8
327.0	107.8
327.2	109.2
327.4	110.2
327.6	111.6
327.8	112.7
328.0	113.8
328.2	115.3
328.4	116.5
328.6	117.5
328.8	118.7
329.0	120.4
329.2	121.7
329.4	122.8
329.6	123.6
329.8	124.7
330.0	126.5
330.2	127.1
330.4	128.3
330.6	128.8
330.8	130.1
331.0	131.3
331.2	132.4
331.4	133.8
331.6	135.6
331.8	136.9
332.0	138.4
332.2	139.3
332.4	140.5
332.6	141.7
332.8	143.6
333.0	144.6
333.2	146.2
333.4	147.6
333.6	148.6
333.8	150.4
334.0	151.8
334.2	152.8
334.4	154.2
334.6	155.7
334.8	157.1
335.0	158.2
335.2	159.3
335.4	160.3
335.6	162.0
335.8	163.0
336.0	164.5
336.2	165.9
336.4	167.0
336.6	168.3
336.8	169.1
337.0	170.8
337.2	172.1
337.4	173.2
337.6	174.3
337.8	175.7
338.0	177.3
338.2	179.1
338.4	179.9
338.6	181.5
338.8	183.3
339.0	184.2
339.2	185.5
339.4	186.9
339.6	188.3
339.8	189.5
340.0	190.6
340.2	192.2
340.4	193.6
340.6	194.9
340.8	196.0
341.0	197.3
341.2	198.0
341.4	199.4
341.6	200.4
341.8	201.4
342.0	202.3
342.2	204.0
342.4	204.7
342.6	206.1
342.8	207.2
343.0	208.5
343.2	209.2
343.4	209.9
343.6	211.3
343.8	212.2
344.0	213.0
344.2	214.2
344.4	215.1
344.6	216.8
344.8	217.5
345.0	219.1
345.2	219.0
345.4	220.1
345.6	221.4
345.8	222.5
346.0	223.1
346.2	224.2
346.4	224.2
346.6	225.0
346.8	226.6
347.0	227.8
347.2	228.5
347.4	229.4
347.6	230.2
347.8	231.0
348.0	231.7
348.2	231.8
348.4	232.4
348.6	233.3
348.8	234.7
349.0	235.6
349.2	236.2
349.4	237.2
349.6	237.5
349.8	238.3
350.0	238.4
350.2	238.7
350.4	239.1
350.6	239.9
350.8	240.0
351.0	240.7
351.2	240.6
351.4	241.2
351.6	241.7
351.8	242.1
352.0	242.2
352.2	242.6
352.4	242.9
352.6	243.4
352.8	244.1
353.0	244.4
353.2	244.1
353.4	244.6
353.6	244.8
353.8	244.8
354.0	245.2
354.2	245.9
354.4	245.8
354.6	245.8
354.8	245.3
355.0	245.7
355.2	245.4
355.4	245.7
355.6	245.5
355.8	245.3
356.0	245.3
356.2	245.6
356.4	245.8
356.6	246.1
356.8	245.1
357.0	245.1
357.2	244.6
357.4	244.8
357.6	244.5
357.8	244.5
358.0	244.5
358.2	244.3
358.4	244.2
358.6	243.8
358.8	243.2
359.0	242.8
359.2	242.8
359.4	242.7
359.6	242.1
359.8	241.9
360.0	240.9
360.2	240.3
360.4	239.8
360.6	239.2
360.8	239.2
361.0	238.9
361.2	238.4
361.4	238.1
361.6	238.0
361.8	237.2
362.0	236.9
362.2	236.3
362.4	235.8
362.6	235.3
362.8	234.8
363.0	234.5
363.2	233.5
363.4	232.9
363.6	232.7
363.8	231.8
364.0	230.8
364.2	229.8
364.4	229.4
364.6	228.8
364.8	227.5
365.0	227.0
365.2	226.7
365.4	226.4
365.6	225.3
365.8	224.9
366.0	224.6
366.2	223.8
366.4	223.1
366.6	222.0
366.8	221.6
367.0	221.3
367.2	220.7
367.4	219.3
367.6	218.6
367.8	217.8
368.0	217.1
368.2	216.1
368.4	214.8
368.6	213.6
368.8	213.0
369.0	212.8
369.2	212.2
369.4	210.8
369.6	209.6
369.8	208.0
370.0	207.4
370.2	206.4
370.4	205.8
370.6	204.6
370.8	203.8
371.0	203.2
371.2	202.7
371.4	202.3
371.6	201.1
371.8	200.5
372.0	199.7
372.2	199.3
372.4	198.3
372.6	197.6
372.8	196.5
373.0	195.3
373.2	194.6
373.4	193.5
373.6	192.5
373.8	191.8
374.0	190.8
374.2	189.8
374.4	189.1
374.6	188.1
374.8	187.3
375.0	186.3
375.2	184.9
375.4	184.2
375.6	183.3
375.8	182.5
376.0	181.6
376.2	180.2
376.4	179.2
376.6	178.5
376.8	177.7
377.0	176.4
377.2	175.8
377.4	174.9
377.6	174.1
377.8	172.8
378.0	171.7
378.2	171.5
378.4	170.9
378.6	170.3
378.8	169.1
379.0	168.5
379.2	167.2
379.4	165.6
379.6	164.4
379.8	163.8
380.0	162.9
380.2	162.0
380.4	161.3
380.6	159.8
380.8	158.9
381.0	158.2
381.2	157.5
381.4	156.8
381.6	156.4
381.8	155.5
382.0	154.7
382.2	153.6
382.4	152.9
382.6	152.2
382.8	150.9
383.0	149.9
383.2	149.1
383.4	148.3
383.6	147.4
383.8	146.5
384.0	146.0
384.2	144.9
384.4	144.3
384.6	143.8
384.8	143.2
385.0	141.7
385.2	140.9
385.4	140.5
385.6	139.6
385.8	138.3
386.0	136.9
386.2	135.9
386.4	135.4
386.6	134.7
386.8	133.7
387.0	133.0
387.2	132.4
387.4	131.9
387.6	131.0
387.8	130.5
388.0	130.1
388.2	129.3
388.4	128.3
388.6	127.2
388.8	126.5
389.0	125.6
389.2	124.6
389.4	123.7
389.6	123.3
389.8	122.6
390.0	122.1
390.2	121.6
390.4	120.8
390.6	120.3
390.8	119.3
391.0	118.8
391.2	118.2
391.4	117.7
391.6	116.8
391.8	116.0
392.0	115.2
392.2	114.6
392.4	113.6
392.6	112.9
392.8	112.4
393.0	111.8
393.2	111.3
393.4	110.6
393.6	110.3
393.8	109.3
394.0	108.9
394.2	108.4
394.4	107.6
394.6	106.9
394.8	106.0
395.0	105.0
395.2	104.9
395.4	104.3
395.6	103.4
395.8	103.0
396.0	102.5
396.2	102.0
396.4	101.4
396.6	100.9
396.8	100.4
397.0	99.94
397.2	99.64
397.4	98.78
397.6	98.10
397.8	97.57
398.0	96.76
398.2	96.20
398.4	95.62
398.6	94.96
398.8	94.38
399.0	93.79
399.2	93.35
399.4	92.85
399.6	92.23
399.8	91.81
400.0	91.33

