Wavelength data table
Sample name	250.0nm	300.0nm	350.0nm	400.0nm	450.0nm	500.0nm	550.0nm	600.0nm	650.0nm	700.0nm	750.0nm	800.0nm	
'UPIM(EM)		166.4	624.1	123.9								

Sample:	'UPIM(EM)
File name:	UPIM-2.FDS
Run date:	'15:28:56, 01/18/2024
Operator:	Administrator
Comment:	'

Instrument
Model:	F-7000 FL Spectrophotometer
Serial number:	2822-002
ROM Version:	5J14000 12

Instrument parameters
Measurement type:	Wavelength scan
Scan mode:	Emission
Data mode:	Fluorescence
EX WL:	285.0 nm
EM  Start WL:	300.0 nm
EM  End WL:	400.0 nm
Scan speed:	1200 nm/min
Delay:	0.1 s
EX Slit:	5.0 nm
EM Slit:	5.0 nm
PMT Voltage:	400 V
Response:	Auto 
Corrected spectra:	Off
Shutter control:	On

Peak integration
Integration method:	Rectangular
Sensitivity:	2
Threshold:	1.000

Peaks
No.	Start(nm)	Apex(nm)	End(nm)	Height(Data)	Valley(nm)	Valley(Data)
1	300.0	340.2	400.0	675.3	400.0	123.9

Data points
nm	Data
300.0	166.4
300.2	166.7
300.4	167.5
300.6	169.3
300.8	171.6
301.0	174.4
301.2	176.8
301.4	180.1
301.6	181.7
301.8	185.0
302.0	188.0
302.2	191.0
302.4	194.4
302.6	197.7
302.8	200.0
303.0	203.7
303.2	206.2
303.4	209.8
303.6	213.1
303.8	216.1
304.0	219.0
304.2	221.9
304.4	224.3
304.6	227.6
304.8	230.3
305.0	233.8
305.2	236.4
305.4	239.0
305.6	241.9
305.8	244.7
306.0	247.2
306.2	250.0
306.4	252.1
306.6	255.1
306.8	258.1
307.0	261.9
307.2	264.6
307.4	267.8
307.6	270.2
307.8	273.0
308.0	276.0
308.2	279.6
308.4	282.4
308.6	285.9
308.8	289.1
309.0	292.1
309.2	295.3
309.4	298.7
309.6	301.2
309.8	304.9
310.0	308.0
310.2	311.3
310.4	314.2
310.6	317.6
310.8	320.9
311.0	324.5
311.2	327.6
311.4	330.9
311.6	334.4
311.8	338.4
312.0	341.5
312.2	344.6
312.4	347.5
312.6	351.5
312.8	355.1
313.0	358.7
313.2	362.3
313.4	365.6
313.6	369.1
313.8	372.5
314.0	374.9
314.2	378.1
314.4	381.6
314.6	385.0
314.8	388.4
315.0	392.6
315.2	396.8
315.4	401.0
315.6	404.1
315.8	406.7
316.0	409.2
316.2	411.8
316.4	415.4
316.6	418.5
316.8	421.6
317.0	425.8
317.2	430.1
317.4	433.8
317.6	437.1
317.8	440.1
318.0	444.0
318.2	447.7
318.4	451.4
318.6	455.0
318.8	458.0
319.0	460.5
319.2	463.5
319.4	466.7
319.6	469.1
319.8	472.2
320.0	474.8
320.2	477.4
320.4	480.0
320.6	482.6
320.8	485.0
321.0	487.3
321.2	490.2
321.4	493.1
321.6	496.1
321.8	499.7
322.0	501.8
322.2	504.5
322.4	507.1
322.6	510.1
322.8	513.2
323.0	516.5
323.2	520.4
323.4	523.7
323.6	526.3
323.8	529.7
324.0	533.1
324.2	535.5
324.4	537.9
324.6	540.8
324.8	542.9
325.0	546.8
325.2	549.2
325.4	551.3
325.6	554.3
325.8	558.1
326.0	561.4
326.2	565.1
326.4	567.4
326.6	569.3
326.8	570.9
327.0	572.9
327.2	575.8
327.4	578.0
327.6	581.2
327.8	583.0
328.0	584.0
328.2	586.8
328.4	588.6
328.6	591.0
328.8	593.1
329.0	595.9
329.2	598.2
329.4	600.0
329.6	602.0
329.8	604.3
330.0	607.2
330.2	609.3
330.4	611.8
330.6	614.5
330.8	616.3
331.0	619.3
331.2	621.3
331.4	623.8
331.6	626.8
331.8	628.4
332.0	630.1
332.2	632.1
332.4	634.8
332.6	635.5
332.8	637.9
333.0	638.9
333.2	641.3
333.4	642.3
333.6	644.4
333.8	646.4
334.0	648.4
334.2	650.7
334.4	652.3
334.6	654.1
334.8	654.7
335.0	655.3
335.2	655.7
335.4	655.7
335.6	657.3
335.8	658.8
336.0	659.8
336.2	661.1
336.4	661.0
336.6	660.5
336.8	661.0
337.0	660.9
337.2	661.6
337.4	661.9
337.6	663.4
337.8	664.7
338.0	665.7
338.2	665.5
338.4	667.8
338.6	668.1
338.8	669.4
339.0	669.8
339.2	671.8
339.4	672.1
339.6	673.9
339.8	674.4
340.0	675.1
340.2	675.3
340.4	674.7
340.6	674.1
340.8	674.4
341.0	673.9
341.2	675.0
341.4	674.5
341.6	674.1
341.8	673.1
342.0	672.1
342.2	671.1
342.4	670.4
342.6	669.4
342.8	668.2
343.0	667.1
343.2	667.6
343.4	667.2
343.6	667.6
343.8	666.1
344.0	666.7
344.2	664.9
344.4	664.6
344.6	662.8
344.8	663.2
345.0	662.2
345.2	661.8
345.4	659.6
345.6	659.2
345.8	657.7
346.0	656.2
346.2	654.5
346.4	653.9
346.6	652.9
346.8	650.6
347.0	649.2
347.2	648.4
347.4	646.3
347.6	645.5
347.8	642.1
348.0	641.4
348.2	639.0
348.4	637.7
348.6	634.4
348.8	633.2
349.0	632.1
349.2	630.3
349.4	628.6
349.6	628.2
349.8	625.6
350.0	624.1
350.2	621.3
350.4	620.7
350.6	618.4
350.8	618.1
351.0	615.9
351.2	614.7
351.4	612.6
351.6	610.2
351.8	607.4
352.0	606.2
352.2	603.7
352.4	600.9
352.6	598.7
352.8	596.9
353.0	594.2
353.2	591.7
353.4	588.8
353.6	586.4
353.8	584.2
354.0	582.3
354.2	580.4
354.4	576.8
354.6	575.2
354.8	572.7
355.0	569.7
355.2	567.3
355.4	565.0
355.6	563.3
355.8	561.4
356.0	560.2
356.2	557.1
356.4	554.0
356.6	551.1
356.8	549.5
357.0	546.5
357.2	545.4
357.4	542.3
357.6	540.2
357.8	537.0
358.0	534.3
358.2	532.7
358.4	530.3
358.6	527.1
358.8	524.8
359.0	522.5
359.2	519.6
359.4	516.8
359.6	514.5
359.8	511.7
360.0	509.3
360.2	507.8
360.4	504.8
360.6	502.2
360.8	499.8
361.0	497.1
361.2	494.3
361.4	491.7
361.6	488.7
361.8	486.1
362.0	484.3
362.2	482.6
362.4	478.7
362.6	476.7
362.8	473.6
363.0	471.3
363.2	468.6
363.4	465.7
363.6	462.2
363.8	460.1
364.0	457.5
364.2	455.1
364.4	453.5
364.6	450.9
364.8	448.0
365.0	445.5
365.2	443.5
365.4	441.0
365.6	438.3
365.8	436.6
366.0	434.6
366.2	431.3
366.4	428.6
366.6	426.1
366.8	422.7
367.0	420.1
367.2	417.3
367.4	415.0
367.6	411.0
367.8	409.4
368.0	406.3
368.2	403.9
368.4	400.8
368.6	399.7
368.8	397.3
369.0	395.0
369.2	392.2
369.4	389.6
369.6	386.5
369.8	384.7
370.0	382.2
370.2	380.5
370.4	377.8
370.6	375.5
370.8	372.6
371.0	370.3
371.2	367.5
371.4	364.8
371.6	362.3
371.8	360.5
372.0	357.1
372.2	355.2
372.4	352.7
372.6	349.8
372.8	347.6
373.0	344.7
373.2	342.1
373.4	340.8
373.6	338.9
373.8	336.9
374.0	333.8
374.2	331.4
374.4	329.2
374.6	327.2
374.8	324.8
375.0	322.0
375.2	319.8
375.4	317.8
375.6	314.7
375.8	312.6
376.0	310.8
376.2	309.0
376.4	306.6
376.6	304.3
376.8	302.1
377.0	300.3
377.2	298.6
377.4	295.9
377.6	294.0
377.8	291.9
378.0	289.2
378.2	287.3
378.4	285.7
378.6	284.1
378.8	281.8
379.0	279.5
379.2	277.0
379.4	274.6
379.6	273.0
379.8	271.5
380.0	269.0
380.2	267.4
380.4	265.6
380.6	263.8
380.8	262.1
381.0	260.2
381.2	258.3
381.4	256.5
381.6	254.8
381.8	252.9
382.0	250.6
382.2	248.7
382.4	247.0
382.6	244.3
382.8	242.6
383.0	240.9
383.2	239.0
383.4	236.8
383.6	235.4
383.8	232.8
384.0	230.9
384.2	229.1
384.4	227.2
384.6	225.3
384.8	224.3
385.0	222.4
385.2	220.2
385.4	218.2
385.6	216.8
385.8	215.0
386.0	213.2
386.2	211.7
386.4	210.7
386.6	209.0
386.8	206.9
387.0	205.7
387.2	203.9
387.4	202.4
387.6	201.3
387.8	199.8
388.0	198.4
388.2	196.7
388.4	195.3
388.6	193.8
388.8	192.6
389.0	190.1
389.2	189.0
389.4	186.9
389.6	186.0
389.8	184.5
390.0	182.9
390.2	181.5
390.4	179.4
390.6	178.1
390.8	177.2
391.0	175.9
391.2	174.9
391.4	173.4
391.6	172.3
391.8	171.1
392.0	169.8
392.2	168.8
392.4	167.5
392.6	166.3
392.8	164.9
393.0	163.6
393.2	161.7
393.4	160.4
393.6	159.7
393.8	158.2
394.0	157.1
394.2	155.7
394.4	154.5
394.6	153.2
394.8	152.3
395.0	150.5
395.2	149.3
395.4	148.0
395.6	146.9
395.8	145.6
396.0	144.6
396.2	143.8
396.4	142.5
396.6	141.9
396.8	140.6
397.0	139.2
397.2	138.3
397.4	136.8
397.6	136.2
397.8	134.5
398.0	133.2
398.2	132.2
398.4	131.4
398.6	130.6
398.8	129.9
399.0	128.9
399.2	128.0
399.4	126.8
399.6	125.9
399.8	125.1
400.0	123.9

