Wavelength data table
Sample name	250.0nm	300.0nm	350.0nm	400.0nm	450.0nm	500.0nm	550.0nm	600.0nm	650.0nm	700.0nm	750.0nm	800.0nm	
'PPI-INU(EM)		160.0	553.2	113.8								

Sample:	'PPI-INU(EM)
File name:	PPI-INU-5.FDS
Run date:	'15:25:45, 01/18/2024
Operator:	Administrator
Comment:	'

Instrument
Model:	F-7000 FL Spectrophotometer
Serial number:	2822-002
ROM Version:	5J14000 12

Instrument parameters
Measurement type:	Wavelength scan
Scan mode:	Emission
Data mode:	Fluorescence
EX WL:	285.0 nm
EM  Start WL:	300.0 nm
EM  End WL:	400.0 nm
Scan speed:	1200 nm/min
Delay:	0.1 s
EX Slit:	5.0 nm
EM Slit:	5.0 nm
PMT Voltage:	400 V
Response:	Auto 
Corrected spectra:	Off
Shutter control:	On

Peak integration
Integration method:	Rectangular
Sensitivity:	2
Threshold:	1.000

Peaks
No.	Start(nm)	Apex(nm)	End(nm)	Height(Data)	Valley(nm)	Valley(Data)
1	300.0	341.4	400.0	594.2	400.0	113.8

Data points
nm	Data
300.0	160.0
300.2	160.8
300.4	161.8
300.6	163.4
300.8	165.2
301.0	167.4
301.2	169.8
301.4	172.2
301.6	174.4
301.8	176.3
302.0	178.8
302.2	181.0
302.4	183.9
302.6	185.9
302.8	188.4
303.0	191.1
303.2	193.5
303.4	195.8
303.6	199.1
303.8	201.9
304.0	205.1
304.2	207.3
304.4	209.7
304.6	212.4
304.8	215.2
305.0	217.9
305.2	221.0
305.4	223.2
305.6	226.3
305.8	229.0
306.0	231.5
306.2	233.4
306.4	236.4
306.6	239.0
306.8	241.7
307.0	244.1
307.2	246.9
307.4	248.5
307.6	251.2
307.8	253.0
308.0	255.4
308.2	258.3
308.4	261.4
308.6	263.9
308.8	267.1
309.0	269.0
309.2	272.0
309.4	274.1
309.6	276.6
309.8	279.5
310.0	281.8
310.2	285.6
310.4	288.2
310.6	289.8
310.8	293.2
311.0	295.9
311.2	299.5
311.4	301.5
311.6	304.9
311.8	307.7
312.0	311.7
312.2	314.4
312.4	317.5
312.6	320.5
312.8	323.7
313.0	326.6
313.2	330.1
313.4	332.7
313.6	335.5
313.8	338.6
314.0	341.9
314.2	345.0
314.4	348.8
314.6	351.3
314.8	353.7
315.0	356.6
315.2	359.3
315.4	361.9
315.6	365.1
315.8	367.8
316.0	370.5
316.2	371.6
316.4	374.7
316.6	378.2
316.8	381.0
317.0	383.5
317.2	386.6
317.4	389.5
317.6	391.9
317.8	394.1
318.0	398.1
318.2	401.3
318.4	404.9
318.6	407.7
318.8	410.3
319.0	412.7
319.2	414.7
319.4	417.4
319.6	420.1
319.8	423.1
320.0	425.8
320.2	428.5
320.4	430.3
320.6	432.0
320.8	435.0
321.0	436.5
321.2	438.7
321.4	441.2
321.6	443.2
321.8	445.4
322.0	449.1
322.2	450.6
322.4	453.0
322.6	455.5
322.8	457.4
323.0	459.6
323.2	462.9
323.4	465.4
323.6	468.3
323.8	470.5
324.0	473.5
324.2	475.9
324.4	478.2
324.6	480.5
324.8	482.8
325.0	485.1
325.2	487.9
325.4	489.9
325.6	491.7
325.8	494.4
326.0	497.6
326.2	499.5
326.4	501.8
326.6	503.3
326.8	505.7
327.0	508.0
327.2	509.7
327.4	511.9
327.6	513.8
327.8	515.5
328.0	517.5
328.2	520.3
328.4	521.7
328.6	524.7
328.8	525.4
329.0	527.8
329.2	529.3
329.4	531.3
329.6	533.4
329.8	534.9
330.0	537.9
330.2	539.9
330.4	542.2
330.6	544.7
330.8	545.8
331.0	548.6
331.2	550.1
331.4	552.3
331.6	553.5
331.8	555.7
332.0	557.9
332.2	559.8
332.4	560.4
332.6	562.2
332.8	563.0
333.0	564.6
333.2	565.0
333.4	567.7
333.6	568.3
333.8	569.5
334.0	570.5
334.2	572.3
334.4	572.9
334.6	574.1
334.8	574.8
335.0	576.0
335.2	577.4
335.4	578.8
335.6	580.1
335.8	581.7
336.0	582.6
336.2	583.8
336.4	583.9
336.6	584.3
336.8	584.7
337.0	585.3
337.2	585.8
337.4	587.6
337.6	587.3
337.8	589.4
338.0	589.0
338.2	590.3
338.4	590.2
338.6	590.6
338.8	591.0
339.0	592.4
339.2	591.9
339.4	592.4
339.6	591.5
339.8	592.8
340.0	591.5
340.2	592.1
340.4	592.3
340.6	592.3
340.8	592.1
341.0	592.7
341.2	592.1
341.4	594.2
341.6	593.6
341.8	592.3
342.0	592.3
342.2	591.9
342.4	590.9
342.6	590.8
342.8	590.1
343.0	590.0
343.2	588.7
343.4	588.9
343.6	588.3
343.8	587.1
344.0	586.4
344.2	585.1
344.4	583.9
344.6	582.9
344.8	582.2
345.0	583.0
345.2	582.5
345.4	581.2
345.6	579.2
345.8	579.5
346.0	578.4
346.2	577.6
346.4	576.8
346.6	575.9
346.8	574.6
347.0	573.2
347.2	572.5
347.4	570.4
347.6	568.7
347.8	568.4
348.0	567.4
348.2	565.1
348.4	564.5
348.6	562.9
348.8	562.5
349.0	561.1
349.2	559.4
349.4	557.3
349.6	554.7
349.8	554.0
350.0	553.2
350.2	550.8
350.4	548.3
350.6	547.2
350.8	545.2
351.0	543.2
351.2	541.0
351.4	539.7
351.6	538.1
351.8	535.5
352.0	533.5
352.2	532.6
352.4	531.1
352.6	529.4
352.8	527.4
353.0	525.3
353.2	524.1
353.4	521.8
353.6	520.0
353.8	517.6
354.0	516.0
354.2	514.1
354.4	511.8
354.6	509.7
354.8	508.1
355.0	506.8
355.2	504.6
355.4	501.9
355.6	500.5
355.8	497.9
356.0	496.2
356.2	493.7
356.4	492.2
356.6	490.4
356.8	488.7
357.0	486.4
357.2	483.8
357.4	482.0
357.6	479.6
357.8	475.7
358.0	474.1
358.2	471.5
358.4	469.1
358.6	466.4
358.8	464.5
359.0	462.0
359.2	460.2
359.4	458.5
359.6	455.9
359.8	454.2
360.0	451.7
360.2	449.4
360.4	447.0
360.6	444.9
360.8	442.8
361.0	441.2
361.2	439.5
361.4	436.8
361.6	434.9
361.8	432.3
362.0	429.5
362.2	427.4
362.4	426.3
362.6	422.9
362.8	420.4
363.0	418.1
363.2	416.6
363.4	414.2
363.6	411.9
363.8	409.6
364.0	407.7
364.2	404.4
364.4	402.5
364.6	399.9
364.8	397.1
365.0	395.2
365.2	392.7
365.4	390.3
365.6	389.4
365.8	387.0
366.0	384.9
366.2	382.7
366.4	380.5
366.6	378.5
366.8	374.9
367.0	373.2
367.2	372.4
367.4	369.5
367.6	367.6
367.8	363.9
368.0	361.7
368.2	359.9
368.4	358.3
368.6	355.7
368.8	353.4
369.0	351.6
369.2	348.7
369.4	346.1
369.6	343.9
369.8	341.4
370.0	339.1
370.2	337.0
370.4	334.9
370.6	332.7
370.8	330.6
371.0	328.5
371.2	326.6
371.4	325.2
371.6	323.6
371.8	321.0
372.0	318.7
372.2	316.1
372.4	314.0
372.6	312.2
372.8	310.2
373.0	308.2
373.2	306.4
373.4	304.2
373.6	302.1
373.8	300.2
374.0	298.5
374.2	296.3
374.4	294.5
374.6	292.4
374.8	290.3
375.0	288.1
375.2	286.8
375.4	284.7
375.6	283.0
375.8	280.7
376.0	278.6
376.2	276.5
376.4	274.7
376.6	272.1
376.8	270.3
377.0	268.5
377.2	266.8
377.4	264.6
377.6	263.3
377.8	261.9
378.0	259.8
378.2	258.2
378.4	256.2
378.6	254.3
378.8	252.4
379.0	250.1
379.2	247.1
379.4	246.2
379.6	244.5
379.8	243.2
380.0	241.5
380.2	239.2
380.4	236.6
380.6	235.2
380.8	233.8
381.0	232.6
381.2	230.8
381.4	229.5
381.6	227.8
381.8	226.3
382.0	225.1
382.2	223.2
382.4	221.7
382.6	220.2
382.8	218.2
383.0	216.7
383.2	214.9
383.4	213.1
383.6	211.4
383.8	209.9
384.0	208.4
384.2	207.0
384.4	205.2
384.6	203.7
384.8	202.1
385.0	201.3
385.2	199.8
385.4	198.3
385.6	196.3
385.8	194.8
386.0	193.1
386.2	192.1
386.4	190.2
386.6	188.6
386.8	187.3
387.0	186.3
387.2	185.0
387.4	183.4
387.6	181.9
387.8	180.9
388.0	179.3
388.2	177.8
388.4	176.9
388.6	175.5
388.8	174.1
389.0	173.0
389.2	172.0
389.4	170.4
389.6	168.8
389.8	168.0
390.0	166.0
390.2	165.0
390.4	163.2
390.6	162.8
390.8	161.9
391.0	160.6
391.2	159.2
391.4	158.1
391.6	156.3
391.8	155.4
392.0	154.0
392.2	152.8
392.4	151.4
392.6	150.0
392.8	148.7
393.0	147.8
393.2	146.5
393.4	145.8
393.6	144.4
393.8	143.4
394.0	142.4
394.2	141.3
394.4	140.1
394.6	139.1
394.8	138.3
395.0	137.6
395.2	136.4
395.4	135.4
395.6	134.2
395.8	133.6
396.0	132.5
396.2	131.6
396.4	130.5
396.6	129.5
396.8	128.4
397.0	127.8
397.2	126.9
397.4	125.9
397.6	124.9
397.8	123.9
398.0	122.9
398.2	122.3
398.4	120.8
398.6	119.4
398.8	118.8
399.0	118.0
399.2	117.0
399.4	116.4
399.6	115.3
399.8	114.9
400.0	113.8

